File: calData/20220902/20220902-1626_Temp297K.txt
IMPEDANCE MEASUREMENT
9/2/2022-4:26 PM
Chamber temperature (K): 297.30
Chamber pressure (MPa): 0.1
Description: 	84uScm_ElectrodeTest
Driving voltage (V): 5.000E-2
Start freq (Hz): 1.000E+6
Stop freq (Hz): 1.000E+3
# freq steps: 60
Index #	Frequency (Hz)	Impedance (ohm)	Phase (degrees)
0	1.0002e+06	4866.99	-51.2338
1	891445	5056.17	-45.0411
2	794414	5185.51	-39.9528
3	708164	5280.21	-35.3764
4	631055	5349.5	-31.3538
5	562383	5397.4	-27.7819
6	501211	5438.74	-24.6856
7	446836	5466.39	-21.8508
8	398320	5484.45	-19.4225
9	354961	5500.3	-17.219
10	316289	5514.21	-15.3325
11	282070	5527.61	-14.2395
12	251367	5534.37	-12.6748
13	223945	5540.88	-11.2838
14	199570	5545.63	-10.0463
15	178008	5550.04	-8.95459
16	158555	5555.02	-7.97596
17	141445	5558.21	-7.11485
18	125977	5561.41	-6.34301
19	112383	5565.61	-5.6551
20	100195	5569.02	-5.0299
21	89179.7	5571.65	-4.48108
22	79570.3	5574.24	-4.00289
23	70898.4	5577.04	-3.57226
24	63164.1	5579.44	-3.19059
25	56367.2	5581.82	-2.8517
26	50273.4	5583.74	-2.54859
27	44882.8	5585.69	-2.28404
28	39960.9	5587.46	-2.03978
29	35507.8	5589.2	-1.82281
30	31757.8	5590.73	-1.6351
31	28242.2	5591.85	-1.46237
32	25195.3	5593.01	-1.31144
33	22617.2	5593.57	-1.1848
34	20039.1	5594.72	-1.05645
35	17929.7	5595.67	-0.954208
36	15663.1	5596.23	-0.840903
37	14179.7	5596.68	-0.76872
38	12461.9	5597.23	-0.683674
39	11089.9	5597.93	-0.620658
40	9946.65	5598.3	-0.564597
41	9023.44	5598.31	-0.523329
42	7888.72	5598.86	-0.470898
43	7148.44	5599.03	-0.437272
44	6288.11	5599	-0.401004
45	5602.13	5599.57	-0.376873
46	5039.06	5599.64	-0.354799
47	4458.84	5599.88	-0.334363
48	4001.52	5600.1	-0.31996
49	3544.21	5600.34	-0.308627
50	3164.06	5600.59	-0.302573
51	2790.18	5600.97	-0.29775
52	2507.27	5601.15	-0.296607
53	2237.22	5601.61	-0.299285
54	1979.17	5602.12	-0.304879
55	1770.83	5602.47	-0.313746
56	1598.01	5602.84	-0.324784
57	1417.15	5603.35	-0.340433
58	1257.62	5604.08	-0.36116
59	1120.92	5604.64	-0.383189
60	1004.46	5605.41	-0.409028