File: calData/20220902/20220902-1629_Temp297K.txt
IMPEDANCE MEASUREMENT
9/2/2022-4:29 PM
Chamber temperature (K): 297.31
Chamber pressure (MPa): 0.1
Description: 	0.0084Sm_ElectrodeTest
Driving voltage (V): 5.000E-2
Start freq (Hz): 1.500E+6
Stop freq (Hz): 1.000E+3
# freq steps: 60
Index #	Frequency (Hz)	Impedance (ohm)	Phase (degrees)
0	1.50012e+06	2700.97	-112.472
1	1.32809e+06	3166.48	-104.367
2	1.17551e+06	3150.09	-93.3797
3	1.04074e+06	4829.2	-52.7713
4	921211	5014.53	-46.5596
5	815508	5159.01	-41.0161
6	721992	5266.05	-36.0281
7	639258	5338.72	-31.6864
8	565898	5389.07	-27.8884
9	500977	5427.34	-24.5609
10	443555	5453.34	-21.6415
11	392695	5474.71	-19.1003
12	347461	5491.09	-16.8243
13	307617	5500.74	-15.4863
14	272461	5508.56	-13.6999
15	241055	5513.8	-12.1001
16	213398	5518.89	-10.6961
17	189023	5520.97	-9.47226
18	167227	5523.09	-8.38229
19	148242	5524.71	-7.42774
20	131133	5525.28	-6.57081
21	116133	5526.09	-5.81781
22	102773	5527.43	-5.14506
23	91054.7	5527.04	-4.54199
24	80507.8	5527.2	-4.02042
25	71367.2	5527.56	-3.57171
26	63164.1	5527.96	-3.16422
27	55898.4	5528.53	-2.80824
28	49570.3	5529.04	-2.49458
29	43945.3	5529.54	-2.22022
30	38789.1	5529.86	-1.96921
31	34335.9	5530.7	-1.75069
32	30351.6	5531.37	-1.55439
33	27070.3	5531.86	-1.39575
34	23789.1	5532.7	-1.23182
35	21210.9	5533.42	-1.10743
36	18867.2	5533.96	-0.992573
37	16523.4	5534.84	-0.877933
38	14648.4	5535.55	-0.786775
39	13007.8	5536.36	-0.709205
40	11318.6	5537.24	-0.629322
41	10195.3	5537.75	-0.576198
42	9023.44	5538.75	-0.521938
43	7888.72	5539.67	-0.470898
44	6974.09	5540.51	-0.429827
45	6288.11	5541.23	-0.401969
46	5468.75	5542.61	-0.372248
47	4916.16	5543.44	-0.351665
48	4335.94	5544.38	-0.332249
49	3867.19	5545.47	-0.318848
50	3398.44	5546.73	-0.308174
51	3013.39	5547.81	-0.301603
52	2629.57	5549.08	-0.299741
53	2343.75	5550.33	-0.301818
54	2071.22	5551.6	-0.306659
55	1853.2	5552.82	-0.314911
56	1635.17	5554.01	-0.327545
57	1450.89	5555.45	-0.343106
58	1289.06	5556.66	-0.362336
59	1120.92	5558.3	-0.389088
60	1004.46	5559.66	-0.415752