File: calData/20220902/20220902-1643_Temp297K.txt
IMPEDANCE MEASUREMENT
9/2/2022-4:43 PM
Chamber temperature (K): 297.49
Chamber pressure (MPa): 0.1
Description: 	1.5Sm_ElectrodeTest
Driving voltage (V): 5.000E-2
Start freq (Hz): 1.500E+6
Stop freq (Hz): 1.000E+3
# freq steps: 60
Index #	Frequency (Hz)	Impedance (ohm)	Phase (degrees)
0	1.50012e+06	23.2609	-13.8005
1	1.32809e+06	23.2699	-12.2044
2	1.17551e+06	23.2234	-10.8732
3	1.04074e+06	23.7139	-0.589154
4	921211	23.6909	-0.562162
5	815508	23.6766	-0.530339
6	721992	23.6725	-0.517081
7	639258	23.6738	-0.515565
8	565898	23.679	-0.518152
9	500977	23.6886	-0.519751
10	443555	23.6954	-0.52373
11	392695	23.7073	-0.544615
12	347461	23.7195	-0.557975
13	307617	23.7325	-0.577745
14	272461	23.7445	-0.590891
15	241055	23.7482	-0.623104
16	213398	23.7595	-0.655677
17	189023	23.7687	-0.693336
18	167227	23.7779	-0.736452
19	148242	23.7863	-0.789139
20	131133	23.7954	-0.853656
21	116133	23.8072	-0.923269
22	102773	23.7838	-0.998952
23	91054.7	23.8131	-1.10221
24	80507.8	23.8274	-1.21808
25	71367.2	23.8431	-1.3449
26	63164.1	23.8602	-1.48715
27	55898.4	23.8794	-1.64416
28	49570.3	23.9007	-1.81632
29	43945.3	23.9243	-2.00473
30	38789.1	23.9526	-2.22247
31	34335.9	23.9831	-2.4549
32	30351.6	24.0168	-2.71455
33	27070.3	24.0514	-2.97963
34	23789.1	24.0952	-3.31051
35	21210.9	24.1375	-3.63523
36	18867.2	24.1854	-3.99754
37	16523.4	24.2462	-4.4547
38	14648.4	24.3082	-4.91494
39	13007.8	24.376	-5.41501
40	11318.6	24.4664	-6.06712
41	10195.3	24.5416	-6.61032
42	9023.44	24.6415	-7.30414
43	7888.72	24.7663	-8.15287
44	6974.09	24.8987	-9.01822
45	6288.11	25.0248	-9.81316
46	5468.75	25.2195	-10.9956
47	4916.16	25.3905	-11.9899
48	4335.94	25.6232	-13.2727
49	3867.19	25.8692	-14.5504
50	3398.44	26.1925	-16.1315
51	3013.39	26.5461	-17.7401
52	2629.57	27.0192	-19.7312
53	2343.75	27.4914	-21.5571
54	2071.22	28.0871	-23.6687
55	1853.2	28.7149	-25.7025
56	1635.17	29.5459	-28.1387
57	1450.89	30.4852	-30.605
58	1289.06	31.5789	-33.1639
59	1120.92	33.1215	-36.3218
60	1004.46	34.5529	-38.8763