File: calData/20220902/20220902-1644_Temp298K.txt
IMPEDANCE MEASUREMENT
9/2/2022-4:44 PM
Chamber temperature (K): 297.51
Chamber pressure (MPa): 0.1
Description: 	1.5Sm_ElectrodeTest
Driving voltage (V): 5.000E-2
Start freq (Hz): 1.500E+6
Stop freq (Hz): 1.000E+3
# freq steps: 60
Index #	Frequency (Hz)	Impedance (ohm)	Phase (degrees)
0	1.50012e+06	23.3766	-13.8421
1	1.32809e+06	23.3522	-12.2489
2	1.17551e+06	23.3488	-10.9129
3	1.04074e+06	23.8082	-0.590807
4	921211	23.7797	-0.563783
5	815508	23.7675	-0.537828
6	721992	23.7608	-0.529059
7	639258	23.7607	-0.519343
8	565898	23.7658	-0.523474
9	500977	23.7722	-0.528233
10	443555	23.779	-0.529659
11	392695	23.7917	-0.54838
12	347461	23.802	-0.565508
13	307617	23.8139	-0.583211
14	272461	23.8269	-0.596232
15	241055	23.8312	-0.624786
16	213398	23.8423	-0.657357
17	189023	23.8516	-0.692848
18	167227	23.8613	-0.738711
19	148242	23.8696	-0.789328
20	131133	23.8792	-0.849832
21	116133	23.8922	-0.921187
22	102773	23.8612	-0.973707
23	91054.7	23.8981	-1.09402
24	80507.8	23.9142	-1.20893
25	71367.2	23.9296	-1.33292
26	63164.1	23.9478	-1.47382
27	55898.4	23.9672	-1.62837
28	49570.3	23.9895	-1.79724
29	43945.3	24.014	-1.98244
30	38789.1	24.0427	-2.1899
31	34335.9	24.0718	-2.4151
32	30351.6	24.1068	-2.66736
33	27070.3	24.1416	-2.92647
34	23789.1	24.1854	-3.25135
35	21210.9	24.2287	-3.5703
36	18867.2	24.2769	-3.92521
37	16523.4	24.3378	-4.37281
38	14648.4	24.3998	-4.82373
39	13007.8	24.4671	-5.3137
40	11318.6	24.5578	-5.95321
41	10195.3	24.6329	-6.48457
42	9023.44	24.7325	-7.16488
43	7888.72	24.8565	-7.99812
44	6974.09	24.9883	-8.84695
45	6288.11	25.113	-9.62796
46	5468.75	25.3066	-10.787
47	4916.16	25.4761	-11.7607
48	4335.94	25.707	-13.0181
49	3867.19	25.95	-14.272
50	3398.44	26.2697	-15.8203
51	3013.39	26.6179	-17.3963
52	2629.57	27.0842	-19.347
53	2343.75	27.5468	-21.1312
54	2071.22	28.1296	-23.194
55	1853.2	28.7416	-25.1773
56	1635.17	29.5506	-27.5555
57	1450.89	30.4642	-29.9722
58	1289.06	31.5309	-32.4944
59	1120.92	33.032	-35.6065
60	1004.46	34.426	-38.1329